OOIBase32 Version 2.0.2.2 Data File
++++++++++++++++++++++++++++++++++++
Date: Thursday, June 02, 2016, 12:49:44
User: Valued Ocean Optics Customer
Spectrometer Serial Number: HR2B941
Spectrometer Channel: Master
Integration Time (msec): 23
Spectra Averaged: 50
Boxcar Smoothing: 10
Correct for Electrical Dark: Disabled
Time Normalized: Disabled
Dual-beam Reference: Disabled
Reference Channel: Master
Temperature: Not acquired
Spectrometer Type: S2000
ADC Type: HR2000
Number of Pixels in File: 2048
Graph Title: 
>>>>>Begin Spectral Data<<<<<
188.45	0.000
188.92	94.700
189.40	95.840
189.87	96.780
190.34	98.000
190.81	99.160
191.28	100.380
191.75	101.420
192.22	102.460
192.69	103.540
193.16	104.080
193.63	104.840
194.10	104.480
194.57	105.300
195.04	104.980
195.51	105.620
195.98	105.840
196.45	105.940
196.92	105.480
197.39	105.220
197.86	104.880
198.33	105.000
198.80	105.280
199.27	105.600
199.74	106.560
200.21	110.380
200.68	110.346
201.15	110.843
201.62	111.330
202.09	111.830
202.56	112.354
203.03	112.883
203.50	113.429
203.97	113.972
204.44	114.494
204.91	115.035
205.38	115.443
205.85	115.791
206.32	116.138
206.79	116.544
207.26	116.954
207.73	117.491
208.20	118.111
208.67	119.025
209.14	120.192
209.61	121.870
210.08	124.013
210.55	126.920
211.02	130.830
211.49	135.756
211.96	141.502
212.43	148.609
212.90	156.735
213.37	165.569
213.83	175.397
214.30	185.668
214.77	197.279
215.24	209.678
215.71	222.414
216.18	235.960
216.65	250.145
217.12	264.881
217.59	279.750
218.06	294.167
218.53	309.410
219.00	325.290
219.47	342.659
219.94	358.895
220.41	375.064
220.87	392.746
221.34	409.676
221.81	425.310
222.28	440.670
222.75	455.737
223.22	471.109
223.69	485.033
224.16	499.138
224.63	512.729
225.10	526.347
225.56	540.814
226.03	556.375
226.50	571.480
226.97	585.581
227.44	599.546
227.91	615.541
228.38	631.194
228.85	646.599
229.32	660.869
229.78	676.927
230.25	691.760
230.72	703.824
231.19	716.833
231.66	730.732
232.13	747.134
232.60	761.631
233.06	774.471
233.53	789.638
234.00	803.433
234.47	817.996
234.94	835.445
235.41	849.883
235.88	863.301
236.34	875.434
236.81	888.857
237.28	902.252
237.75	916.748
238.22	929.350
238.69	940.004
239.15	952.329
239.62	964.386
240.09	977.644
240.56	990.240
241.03	1003.004
241.50	1016.475
241.96	1024.701
242.43	1038.810
242.90	1049.941
243.37	1059.895
243.84	1069.458
244.30	1077.516
244.77	1079.585
245.24	1087.854
245.71	1098.131
246.18	1104.892
246.64	1111.007
247.11	1117.299
247.58	1119.530
248.05	1124.204
248.52	1134.765
248.98	1140.373
249.45	1143.533
249.92	1145.218
250.39	1146.671
250.85	1149.336
251.32	1149.626
251.79	1149.852
252.26	1145.832
252.73	1144.609
253.19	1146.510
253.66	1148.692
254.13	1151.789
254.60	1155.688
255.06	1154.771
255.53	1150.090
256.00	1151.543
256.47	1154.690
256.93	1158.195
257.40	1163.333
257.87	1166.499
258.34	1165.442
258.80	1171.182
259.27	1179.066
259.74	1188.298
260.20	1198.632
260.67	1205.945
261.14	1211.260
261.61	1219.161
262.07	1226.458
262.54	1235.600
263.01	1239.827
263.48	1247.587
263.94	1254.399
264.41	1263.429
264.88	1269.892
265.34	1277.985
265.81	1284.573
266.28	1291.084
266.75	1293.625
267.21	1296.615
267.68	1300.163
268.15	1302.917
268.61	1301.748
269.08	1297.758
269.55	1291.657
270.01	1284.009
270.48	1275.116
270.95	1271.047
271.41	1262.728
271.88	1253.358
272.35	1242.013
272.81	1231.696
273.28	1220.628
273.75	1208.998
274.21	1196.466
274.68	1185.259
275.15	1174.113
275.61	1160.556
276.08	1142.960
276.55	1128.244
277.01	1113.921
277.48	1098.508
277.95	1083.745
278.41	1069.393
278.88	1056.657
279.35	1046.178
279.81	1038.431
280.28	1032.026
280.75	1024.256
281.21	1019.645
281.68	1017.049
282.14	1017.035
282.61	1015.993
283.08	1012.265
283.54	1008.591
284.01	1007.342
284.47	1008.585
284.94	1008.284
285.41	1010.764
285.87	1016.680
286.34	1023.446
286.81	1027.670
287.27	1032.710
287.74	1035.572
288.20	1037.907
288.67	1041.109
289.14	1043.229
289.60	1042.687
290.07	1042.427
290.53	1041.624
291.00	1040.866
291.46	1039.980
291.93	1035.420
292.40	1032.374
292.86	1030.461
293.33	1030.069
293.79	1024.403
294.26	1016.953
294.72	1010.331
295.19	1003.272
295.66	994.567
296.12	986.658
296.59	979.792
297.05	972.289
297.52	965.411
297.98	957.477
298.45	948.755
298.91	942.840
299.38	938.437
299.85	933.059
300.31	928.385
300.78	922.971
301.24	916.160
301.71	912.450
302.17	909.288
302.64	903.522
303.10	896.087
303.57	891.984
304.03	888.060
304.50	884.319
304.96	880.457
305.43	877.310
305.89	871.996
306.36	867.175
306.82	863.300
307.29	859.814
307.75	858.222
308.22	857.469
308.68	855.626
309.15	851.450
309.61	848.460
310.08	846.315
310.54	844.806
311.01	844.322
311.47	840.832
311.94	835.637
312.40	832.821
312.87	831.310
313.33	830.035
313.80	829.487
314.26	828.594
314.73	827.871
315.19	826.016
315.66	825.170
316.12	823.908
316.59	823.211
317.05	821.074
317.51	819.168
317.98	816.865
318.44	812.107
318.91	810.433
319.37	808.020
319.84	804.430
320.30	799.993
320.77	794.823
321.23	791.921
321.69	790.350
322.16	788.607
322.62	786.037
323.09	783.365
323.55	782.564
324.02	780.491
324.48	776.265
324.94	773.835
325.41	772.359
325.87	771.788
326.34	769.483
326.80	768.432
327.27	765.052
327.73	761.780
328.19	761.332
328.66	760.521
329.12	759.060
329.59	757.146
330.05	757.454
330.51	758.147
330.98	757.906
331.44	756.032
331.90	753.348
332.37	749.872
332.83	746.125
333.30	741.176
333.76	737.084
334.22	733.827
334.69	729.495
335.15	724.388
335.61	718.389
336.08	713.935
336.54	711.873
337.01	711.121
337.47	710.599
337.93	707.969
338.40	704.503
338.86	703.239
339.32	701.644
339.79	699.703
340.25	697.536
340.71	697.400
341.18	698.882
341.64	700.787
342.10	702.549
342.57	704.133
343.03	704.875
343.49	705.923
343.96	708.830
344.42	711.474
344.88	713.491
345.35	715.773
345.81	717.003
346.27	717.578
346.74	717.202
347.20	716.871
347.66	716.983
348.12	716.110
348.59	714.780
349.05	713.170
349.51	711.471
349.98	709.615
350.44	706.748
350.90	703.483
351.36	700.620
351.83	699.374
352.29	698.089
352.75	696.873
353.22	695.521
353.68	693.750
354.14	692.459
354.60	691.319
355.07	689.516
355.53	688.930
355.99	687.851
356.45	687.604
356.92	687.188
357.38	686.518
357.84	687.699
358.30	688.644
358.77	691.198
359.23	692.845
359.69	695.658
360.15	697.349
360.62	698.081
361.08	698.994
361.54	699.528
362.00	700.790
362.47	702.013
362.93	703.697
363.39	705.356
363.85	707.357
364.32	709.325
364.78	711.490
365.24	713.184
365.70	714.506
366.16	715.728
366.63	716.675
367.09	718.482
367.55	719.285
368.01	720.199
368.47	720.568
368.94	721.716
369.40	722.314
369.86	723.594
370.32	726.382
370.78	729.351
371.25	731.536
371.71	733.435
372.17	736.011
372.63	738.036
373.09	741.446
373.55	744.573
374.02	747.991
374.48	752.308
374.94	756.942
375.40	762.326
375.86	767.022
376.32	772.508
376.79	777.667
377.25	783.078
377.71	788.529
378.17	795.007
378.63	799.909
379.09	804.914
379.55	809.773
380.02	814.731
380.48	818.903
380.94	823.002
381.40	826.559
381.86	829.635
382.32	833.815
382.78	837.093
383.24	839.529
383.71	842.822
384.17	845.776
384.63	848.201
385.09	850.531
385.55	852.721
386.01	854.211
386.47	856.089
386.93	857.245
387.39	859.317
387.86	861.277
388.32	864.701
388.78	868.441
389.24	870.898
389.70	872.500
390.16	873.792
390.62	876.957
391.08	878.934
391.54	882.120
392.00	884.043
392.46	887.108
392.92	890.911
393.39	894.946
393.85	900.178
394.31	905.737
394.77	910.125
395.23	914.548
395.69	918.522
396.15	922.687
396.61	925.218
397.07	928.066
397.53	929.294
397.99	928.423
398.45	926.716
398.91	927.790
399.37	929.228
399.83	930.500
400.29	929.913
400.75	931.849
401.21	931.291
401.67	931.720
402.13	929.475
402.59	924.957
403.05	919.563
403.51	913.452
403.97	906.661
404.43	901.546
404.89	897.107
405.35	892.884
405.81	888.181
406.27	885.752
406.73	880.562
407.19	877.227
407.65	875.632
408.11	874.267
408.57	871.948
409.03	871.630
409.49	871.181
409.95	870.221
410.41	869.022
410.87	868.967
411.33	868.466
411.79	868.730
412.25	869.871
412.71	872.662
413.17	874.926
413.63	877.880
414.09	880.747
414.55	885.031
415.01	888.239
415.47	893.661
415.93	899.473
416.39	907.771
416.85	914.870
417.31	921.909
417.77	930.576
418.23	936.890
418.69	941.387
419.14	946.959
419.60	952.613
420.06	958.129
420.52	964.298
420.98	968.291
421.44	973.357
421.90	980.039
422.36	984.596
422.82	990.083
423.28	996.344
423.74	1000.584
424.20	1004.813
424.65	1011.276
425.11	1017.416
425.57	1023.437
426.03	1028.078
426.49	1034.356
426.95	1039.381
427.41	1042.176
427.87	1045.004
428.33	1049.698
428.78	1054.180
429.24	1059.398
429.70	1064.355
430.16	1069.838
430.62	1077.403
431.08	1083.490
431.54	1090.165
432.00	1097.143
432.45	1102.118
432.91	1107.595
433.37	1114.280
433.83	1119.629
434.29	1122.194
434.75	1123.865
435.20	1127.868
435.66	1131.496
436.12	1136.478
436.58	1143.746
437.04	1151.908
437.50	1163.801
437.95	1174.546
438.41	1187.194
438.87	1204.696
439.33	1220.371
439.79	1239.941
440.25	1261.903
440.70	1288.920
441.16	1314.971
441.62	1346.400
442.08	1382.023
442.54	1413.450
442.99	1447.637
443.45	1487.814
443.91	1528.875
444.37	1571.691
444.83	1610.861
445.28	1650.667
445.74	1687.090
446.20	1726.410
446.66	1761.882
447.12	1797.480
447.57	1834.052
448.03	1867.127
448.49	1896.328
448.95	1928.472
449.40	1956.668
449.86	1981.678
450.32	2002.220
450.78	2026.096
451.23	2040.091
451.69	2054.371
452.15	2072.525
452.61	2087.343
453.06	2094.717
453.52	2103.082
453.98	2109.309
454.44	2121.408
454.89	2129.075
455.35	2141.045
455.81	2145.915
456.27	2155.526
456.72	2166.624
457.18	2176.949
457.64	2191.589
458.10	2209.891
458.55	2231.649
459.01	2251.659
459.47	2279.810
459.92	2305.404
460.38	2331.981
460.84	2367.537
461.29	2399.993
461.75	2439.256
462.21	2472.589
462.67	2506.315
463.12	2542.206
463.58	2577.686
464.04	2606.975
464.49	2641.303
464.95	2665.296
465.41	2692.764
465.86	2726.680
466.32	2753.359
466.78	2773.561
467.23	2786.897
467.69	2796.286
468.15	2800.920
468.60	2806.561
469.06	2805.928
469.52	2806.455
469.97	2804.846
470.43	2798.085
470.89	2789.990
471.34	2782.649
471.80	2781.975
472.26	2781.976
472.71	2782.873
473.17	2781.496
473.62	2781.530
474.08	2790.371
474.54	2802.483
474.99	2813.662
475.45	2824.493
475.91	2833.372
476.36	2844.782
476.82	2859.657
477.27	2877.311
477.73	2893.895
478.19	2907.250
478.64	2913.889
479.10	2920.039
479.55	2921.027
480.01	2919.533
480.47	2916.072
480.92	2906.436
481.38	2892.928
481.83	2879.825
482.29	2860.680
482.75	2842.832
483.20	2824.244
483.66	2794.319
484.11	2768.203
484.57	2743.661
485.02	2711.862
485.48	2685.703
485.94	2663.247
486.39	2641.887
486.85	2619.993
487.30	2600.122
487.76	2584.717
488.21	2578.298
488.67	2574.310
489.12	2576.004
489.58	2582.060
490.04	2595.929
490.49	2609.296
490.95	2627.848
491.40	2648.773
491.86	2674.190
492.31	2702.779
492.77	2734.419
493.22	2769.214
493.68	2803.178
494.13	2835.971
494.59	2869.643
495.04	2900.546
495.50	2928.275
495.95	2954.434
496.41	2975.742
496.86	2992.917
497.32	3004.964
497.77	3009.993
498.23	3012.016
498.68	3007.718
499.14	2998.677
499.59	2982.841
500.05	2961.598
500.50	2936.894
500.96	2908.831
501.41	2875.818
501.87	2839.258
502.32	2799.177
502.78	2756.037
503.23	2713.404
503.68	2670.319
504.14	2624.966
504.59	2582.115
505.05	2541.728
505.50	2501.213
505.96	2463.958
506.41	2429.555
506.87	2398.646
507.32	2373.539
507.78	2350.472
508.23	2331.119
508.68	2316.487
509.14	2303.759
509.59	2295.334
510.05	2288.941
510.50	2284.158
510.96	2282.347
511.41	2282.017
511.86	2283.010
512.32	2284.630
512.77	2284.727
513.23	2285.534
513.68	2286.393
514.13	2288.168
514.59	2288.240
515.04	2288.106
515.50	2285.493
515.95	2282.808
516.40	2279.425
516.86	2272.799
517.31	2265.998
517.77	2258.829
518.22	2249.681
518.67	2239.375
519.13	2228.805
519.58	2217.386
520.03	2204.770
520.49	2193.630
520.94	2180.862
521.39	2168.563
521.85	2157.364
522.30	2147.373
522.76	2137.321
523.21	2128.541
523.66	2119.582
524.12	2111.825
524.57	2106.430
525.02	2102.471
525.48	2098.166
525.93	2096.016
526.38	2095.180
526.84	2093.920
527.29	2093.900
527.74	2095.036
528.20	2097.928
528.65	2100.661
529.10	2104.079
529.55	2107.322
530.01	2111.048
530.46	2116.625
530.91	2122.050
531.37	2126.528
531.82	2131.716
532.27	2137.422
532.73	2143.850
533.18	2149.256
533.63	2156.751
534.08	2162.658
534.54	2169.476
534.99	2175.578
535.44	2181.589
535.90	2187.893
536.35	2195.898
536.80	2202.798
537.25	2208.932
537.71	2214.529
538.16	2221.398
538.61	2228.214
539.06	2236.093
539.52	2243.776
539.97	2248.618
540.42	2254.482
540.87	2262.410
541.33	2268.539
541.78	2275.218
542.23	2281.156
542.68	2287.819
543.14	2293.917
543.59	2301.687
544.04	2307.069
544.49	2315.643
544.95	2323.360
545.40	2331.705
545.85	2339.448
546.30	2345.799
546.75	2353.670
547.21	2361.893
547.66	2369.080
548.11	2377.814
548.56	2387.086
549.01	2395.114
549.47	2406.458
549.92	2415.289
550.37	2424.380
550.82	2434.560
551.27	2445.213
551.73	2454.611
552.18	2465.226
552.63	2474.883
553.08	2484.763
553.53	2496.120
553.98	2507.248
554.44	2518.176
554.89	2528.655
555.34	2539.532
555.79	2552.088
556.24	2564.073
556.69	2575.540
557.14	2587.830
557.60	2598.871
558.05	2609.780
558.50	2621.279
558.95	2631.560
559.40	2643.585
559.85	2654.185
560.30	2666.027
560.76	2675.169
561.21	2686.862
561.66	2699.278
562.11	2709.854
562.56	2720.621
563.01	2732.056
563.46	2741.796
563.91	2751.650
564.36	2761.726
564.82	2771.747
565.27	2781.750
565.72	2790.631
566.17	2800.783
566.62	2810.217
567.07	2819.805
567.52	2827.835
567.97	2835.107
568.42	2843.864
568.87	2850.820
569.32	2859.323
569.78	2866.271
570.23	2875.025
570.68	2883.171
571.13	2889.456
571.58	2897.734
572.03	2902.830
572.48	2907.642
572.93	2911.052
573.38	2915.735
573.83	2919.417
574.28	2923.155
574.73	2927.148
575.18	2931.528
575.63	2934.651
576.08	2936.910
576.53	2938.312
576.98	2940.574
577.43	2943.694
577.88	2944.549
578.33	2946.402
578.78	2945.858
579.23	2947.011
579.68	2947.282
580.13	2947.826
580.58	2946.799
581.03	2945.195
581.48	2945.387
581.93	2944.494
582.38	2946.549
582.83	2945.852
583.28	2945.021
583.73	2946.402
584.18	2947.466
584.63	2948.196
585.08	2948.788
585.53	2947.895
585.98	2947.074
586.43	2948.516
586.88	2949.038
587.33	2950.917
587.78	2953.050
588.23	2955.585
588.68	2957.058
589.13	2960.055
589.58	2960.771
590.03	2962.945
590.48	2965.855
590.93	2969.614
591.38	2973.044
591.83	2975.970
592.28	2980.565
592.73	2984.192
593.18	2986.973
593.62	2990.232
594.07	2992.390
594.52	2995.825
594.97	3001.537
595.42	3007.839
595.87	3013.169
596.32	3018.602
596.77	3023.553
597.22	3029.998
597.67	3036.139
598.12	3040.440
598.56	3045.280
599.01	3050.629
599.46	3056.792
599.91	3061.742
600.36	3066.788
600.81	3072.697
601.26	3076.822
601.71	3081.632
602.16	3088.188
602.60	3092.370
603.05	3096.544
603.50	3102.971
603.95	3108.439
604.40	3113.683
604.85	3118.751
605.30	3123.140
605.74	3127.249
606.19	3131.952
606.64	3135.007
607.09	3139.040
607.54	3143.411
607.99	3147.646
608.44	3152.703
608.88	3157.690
609.33	3162.351
609.78	3166.577
610.23	3171.171
610.68	3176.375
611.12	3179.751
611.57	3183.141
612.02	3186.826
612.47	3190.413
612.92	3192.980
613.37	3196.407
613.81	3199.698
614.26	3203.217
614.71	3204.711
615.16	3207.319
615.61	3209.073
616.05	3210.685
616.50	3212.477
616.95	3214.294
617.40	3215.763
617.84	3216.490
618.29	3217.246
618.74	3216.846
619.19	3218.001
619.63	3218.052
620.08	3218.283
620.53	3219.484
620.98	3220.507
621.43	3221.760
621.87	3222.452
622.32	3222.214
622.77	3224.065
623.22	3223.045
623.66	3222.996
624.11	3223.247
624.56	3224.782
625.00	3225.532
625.45	3225.269
625.90	3225.700
626.35	3227.128
626.79	3226.984
627.24	3227.950
627.69	3227.257
628.14	3229.313
628.58	3228.743
629.03	3228.624
629.48	3227.636
629.92	3227.438
630.37	3226.703
630.82	3225.411
631.26	3224.234
631.71	3226.106
632.16	3224.017
632.60	3222.363
633.05	3221.225
633.50	3220.272
633.95	3218.359
634.39	3215.704
634.84	3214.852
635.29	3212.264
635.73	3209.828
636.18	3207.761
636.63	3204.274
637.07	3202.937
637.52	3199.293
637.96	3197.137
638.41	3195.778
638.86	3194.783
639.30	3191.807
639.75	3187.834
640.20	3185.557
640.64	3183.540
641.09	3180.023
641.54	3176.013
641.98	3176.612
642.43	3174.882
642.87	3173.037
643.32	3170.620
643.77	3168.698
644.21	3166.882
644.66	3165.254
645.10	3164.372
645.55	3163.509
646.00	3162.320
646.44	3160.102
646.89	3159.671
647.33	3159.113
647.78	3157.916
648.23	3156.718
648.67	3156.948
649.12	3157.533
649.56	3158.960
650.01	3164.813
650.46	3172.750
650.90	3180.223
651.35	3183.119
651.79	3185.531
652.24	3186.778
652.68	3189.926
653.13	3194.407
653.57	3197.801
654.02	3199.752
654.47	3198.710
654.91	3199.179
655.36	3200.552
655.80	3201.778
656.25	3202.969
656.69	3203.329
657.14	3205.857
657.58	3207.656
658.03	3210.365
658.47	3214.010
658.92	3216.777
659.36	3215.630
659.81	3212.811
660.25	3212.854
660.70	3215.913
661.14	3220.673
661.59	3228.180
662.03	3235.679
662.48	3244.011
662.92	3253.859
663.37	3267.589
663.81	3286.307
664.26	3304.686
664.70	3325.109
665.15	3345.793
665.59	3369.756
666.04	3393.788
666.48	3417.911
666.93	3443.889
667.37	3468.317
667.82	3493.259
668.26	3516.067
668.70	3536.744
669.15	3556.460
669.59	3573.144
670.04	3586.495
670.48	3598.536
670.93	3606.707
671.37	3610.660
671.81	3610.631
672.26	3606.397
672.70	3599.037
673.15	3587.954
673.59	3573.563
674.04	3555.840
674.48	3536.231
674.92	3511.920
675.37	3486.231
675.81	3456.417
676.26	3426.773
676.70	3395.747
677.14	3362.883
677.59	3330.799
678.03	3298.356
678.48	3266.857
678.92	3235.880
679.36	3207.145
679.81	3178.620
680.25	3151.291
680.70	3126.695
681.14	3104.066
681.58	3084.402
682.03	3064.464
682.47	3045.830
682.91	3027.548
683.36	3012.042
683.80	2997.216
684.24	2981.847
684.69	2968.085
685.13	2957.185
685.57	2944.480
686.02	2932.433
686.46	2921.004
686.90	2910.117
687.35	2900.046
687.79	2889.346
688.23	2878.481
688.68	2867.320
689.12	2856.677
689.56	2847.813
690.01	2837.118
690.45	2827.218
690.89	2817.199
691.34	2808.230
691.78	2797.936
692.22	2789.415
692.67	2779.813
693.11	2770.861
693.55	2762.732
693.99	2755.324
694.44	2745.715
694.88	2737.034
695.32	2728.257
695.76	2720.779
696.21	2711.999
696.65	2704.782
697.09	2696.395
697.54	2689.916
697.98	2682.711
698.42	2675.920
698.86	2669.495
699.31	2663.434
699.75	2657.372
700.19	2651.488
700.63	2645.493
701.08	2639.464
701.52	2634.715
701.96	2628.982
702.40	2623.721
702.84	2617.547
703.29	2612.555
703.73	2607.749
704.17	2601.838
704.61	2597.210
705.06	2590.879
705.50	2586.205
705.94	2581.344
706.38	2575.705
706.82	2571.077
707.27	2567.397
707.71	2561.961
708.15	2556.955
708.59	2552.039
709.03	2547.096
709.48	2542.253
709.92	2538.601
710.36	2534.964
710.80	2530.331
711.24	2527.485
711.68	2521.955
712.13	2519.321
712.57	2513.998
713.01	2509.654
713.45	2505.472
713.89	2500.630
714.33	2497.038
714.77	2491.516
715.22	2484.829
715.66	2479.037
716.10	2471.793
716.54	2463.296
716.98	2456.505
717.42	2448.327
717.86	2439.695
718.31	2429.912
718.75	2420.546
719.19	2409.369
719.63	2398.859
720.07	2388.472
720.51	2376.395
