{
  "id": "http://localhost:5000/OceanOptics_example1.json",
  "type": "Spectrum",
  "metadata": [
    {
      "Date": "Thursday, June 02, 2016, 12:49:44"
    },
    {
      "User": "Valued Ocean Optics Customer"
    },
    {
      "Spectrometer Serial Number": "HR2B941"
    },
    {
      "Spectrometer Channel": "Master"
    },
    {
      "Integration Time (msec)": "23"
    },
    {
      "Spectra Averaged": "50"
    },
    {
      "Boxcar Smoothing": "10"
    },
    {
      "Correct for Electrical Dark": "Disabled"
    },
    {
      "Time Normalized": "Disabled"
    },
    {
      "Dual-beam Reference": "Disabled"
    },
    {
      "Reference Channel": "Master"
    },
    {
      "Temperature": "Not acquired"
    },
    {
      "Spectrometer Type": "S2000"
    },
    {
      "ADC Type": "HR2000"
    },
    {
      "Number of Pixels in File": "2048"
    },
    {
      "Graph Title": ""
    }
  ],
  "proccesedValue": {
    "type": "Reflectance",
    "expectedMaxValue": 100.0,
    "expectedMinValue": 0.0,
    "unit": "percentage",
    "data": [
      [
        0.0,
        111.71,
        117.534,
        111.132,
        117.837,
        108.571,
        109.273,
        107.194,
        112.121,
        109.559,
        110.546,
        111.94,
        109.307,
        110.495,
        105.039,
        110.913,
        107.341,
        109.543,
        108.386,
        111.523,
        109.441,
        106.08,
        115.304,
        109.69,
        130.0,
        233.482,
        228.225,
        253.664,
        284.028,
        320.542,
        375.491,
        452.809,
        562.523,
        741.878,
        1150.645,
        2301.945,
        7904.591,
        -10359.112,
        -3086.425,
        -1637.481,
        -1072.163,
        -730.419,
        -529.593,
        -381.685,
        -278.882,
        -200.374,
        -145.225,
        -105.78,
        -76.282,
        -56.509,
        -43.315,
        -33.533,
        -26.543,
        -21.486,
        -17.746,
        -14.921,
        -12.62,
        -10.748,
        -9.229,
        -7.978,
        -6.925,
        -6.078,
        -5.375,
        -4.806,
        -4.288,
        -3.858,
        -3.427,
        -3.061,
        -2.754,
        -2.467,
        -2.205,
        -1.963,
        -1.755,
        -1.559,
        -1.382,
        -1.222,
        -1.07,
        -0.932,
        -0.804,
        -0.685,
        -0.565,
        -0.452,
        -0.345,
        -0.245,
        -0.139,
        -0.042,
        0.054,
        0.144,
        0.23,
        0.318,
        0.392,
        0.467,
        0.538,
        0.613,
        0.683,
        0.748,
        0.811,
        0.876,
        0.948,
        1.021,
        1.1,
        1.166,
        1.23,
        1.291,
        1.354,
        1.416,
        1.477,
        1.539,
        1.589,
        1.646,
        1.697,
        1.749,
        1.795,
        1.84,
        1.888,
        1.93,
        1.976,
        2.02,
        2.058,
        2.085,
        2.115,
        2.13,
        2.155,
        2.176,
        2.201,
        2.219,
        2.232,
        2.243,
        2.254,
        2.275,
        2.287,
        2.301,
        2.31,
        2.322,
        2.33,
        2.331,
        2.33,
        2.324,
        2.319,
        2.317,
        2.322,
        2.324,
        2.324,
        2.318,
        2.314,
        2.307,
        2.299,
        2.295,
        2.294,
        2.29,
        2.278,
        2.267,
        2.257,
        2.25,
        2.238,
        2.225,
        2.215,
        2.209,
        2.205,
        2.193,
        2.179,
        2.166,
        2.151,
        2.141,
        2.127,
        2.109,
        2.093,
        2.083,
        2.064,
        2.045,
        2.026,
        2.007,
        1.984,
        1.961,
        1.935,
        1.91,
        1.889,
        1.863,
        1.837,
        1.803,
        1.776,
        1.745,
        1.707,
        1.671,
        1.634,
        1.602,
        1.571,
        1.536,
        1.496,
        1.461,
        1.422,
        1.378,
        1.338,
        1.298,
        1.259,
        1.217,
        1.182,
        1.141,
        1.109,
        1.075,
        1.05,
        1.023,
        0.994,
        0.971,
        0.941,
        0.917,
        0.891,
        0.872,
        0.852,
        0.836,
        0.818,
        0.799,
        0.788,
        0.769,
        0.755,
        0.737,
        0.726,
        0.704,
        0.69,
        0.67,
        0.651,
        0.631,
        0.608,
        0.587,
        0.565,
        0.548,
        0.523,
        0.495,
        0.459,
        0.422,
        0.389,
        0.357,
        0.326,
        0.288,
        0.254,
        0.217,
        0.181,
        0.143,
        0.111,
        0.077,
        0.042,
        0.007,
        -0.032,
        -0.068,
        -0.107,
        -0.141,
        -0.182,
        -0.215,
        -0.246,
        -0.276,
        -0.302,
        -0.338,
        -0.366,
        -0.395,
        -0.423,
        -0.45,
        -0.472,
        -0.489,
        -0.506,
        -0.529,
        -0.552,
        -0.562,
        -0.567,
        -0.564,
        -0.569,
        -0.571,
        -0.574,
        -0.565,
        -0.553,
        -0.535,
        -0.505,
        -0.473,
        -0.427,
        -0.381,
        -0.324,
        -0.262,
        -0.184,
        -0.101,
        -0.013,
        0.086,
        0.199,
        0.337,
        0.48,
        0.636,
        0.798,
        0.98,
        1.185,
        1.409,
        1.652,
        1.911,
        2.189,
        2.458,
        2.737,
        3.025,
        3.337,
        3.656,
        3.957,
        4.267,
        4.567,
        4.875,
        5.194,
        5.511,
        5.805,
        6.094,
        6.376,
        6.639,
        6.897,
        7.136,
        7.369,
        7.582,
        7.808,
        8.011,
        8.199,
        8.383,
        8.561,
        8.724,
        8.869,
        9.02,
        9.155,
        9.305,
        9.441,
        9.558,
        9.665,
        9.782,
        9.877,
        9.963,
        10.061,
        10.155,
        10.251,
        10.323,
        10.4,
        10.472,
        10.536,
        10.592,
        10.648,
        10.706,
        10.754,
        10.815,
        10.858,
        10.906,
        10.944,
        10.978,
        11.017,
        11.054,
        11.072,
        11.106,
        11.14,
        11.168,
        11.201,
        11.222,
        11.251,
        11.274,
        11.298,
        11.316,
        11.328,
        11.337,
        11.343,
        11.364,
        11.358,
        11.366,
        11.368,
        11.373,
        11.381,
        11.38,
        11.377,
        11.381,
        11.386,
        11.375,
        11.385,
        11.371,
        11.365,
        11.356,
        11.356,
        11.351,
        11.349,
        11.355,
        11.37,
        11.379,
        11.385,
        11.398,
        11.405,
        11.408,
        11.404,
        11.411,
        11.409,
        11.406,
        11.407,
        11.399,
        11.41,
        11.405,
        11.412,
        11.424,
        11.426,
        11.427,
        11.421,
        11.416,
        11.416,
        11.415,
        11.418,
        11.412,
        11.42,
        11.43,
        11.437,
        11.438,
        11.445,
        11.465,
        11.489,
        11.496,
        11.511,
        11.514,
        11.526,
        11.539,
        11.538,
        11.555,
        11.562,
        11.577,
        11.586,
        11.595,
        11.593,
        11.594,
        11.594,
        11.59,
        11.584,
        11.588,
        11.603,
        11.604,
        11.616,
        11.608,
        11.614,
        11.618,
        11.618,
        11.616,
        11.614,
        11.623,
        11.619,
        11.622,
        11.62,
        11.627,
        11.628,
        11.632,
        11.638,
        11.64,
        11.649,
        11.645,
        11.648,
        11.635,
        11.635,
        11.618,
        11.62,
        11.616,
        11.618,
        11.621,
        11.623,
        11.629,
        11.623,
        11.626,
        11.624,
        11.633,
        11.633,
        11.626,
        11.622,
        11.609,
        11.609,
        11.605,
        11.607,
        11.6,
        11.605,
        11.604,
        11.604,
        11.602,
        11.599,
        11.594,
        11.59,
        11.594,
        11.593,
        11.605,
        11.603,
        11.604,
        11.595,
        11.594,
        11.601,
        11.607,
        11.62,
        11.617,
        11.619,
        11.628,
        11.631,
        11.628,
        11.633,
        11.642,
        11.651,
        11.654,
        11.657,
        11.666,
        11.665,
        11.667,
        11.661,
        11.661,
        11.676,
        11.687,
        11.698,
        11.696,
        11.704,
        11.702,
        11.713,
        11.719,
        11.719,
        11.733,
        11.749,
        11.752,
        11.76,
        11.761,
        11.761,
        11.766,
        11.765,
        11.76,
        11.756,
        11.744,
        11.736,
        11.713,
        11.691,
        11.674,
        11.657,
        11.639,
        11.621,
        11.603,
        11.58,
        11.561,
        11.539,
        11.518,
        11.495,
        11.473,
        11.45,
        11.44,
        11.422,
        11.412,
        11.41,
        11.404,
        11.406,
        11.403,
        11.409,
        11.418,
        11.423,
        11.432,
        11.428,
        11.429,
        11.42,
        11.409,
        11.4,
        11.383,
        11.377,
        11.367,
        11.356,
        11.349,
        11.336,
        11.328,
        11.314,
        11.302,
        11.295,
        11.289,
        11.283,
        11.271,
        11.261,
        11.25,
        11.243,
        11.243,
        11.24,
        11.243,
        11.251,
        11.257,
        11.265,
        11.268,
        11.272,
        11.275,
        11.274,
        11.277,
        11.28,
        11.285,
        11.284,
        11.284,
        11.279,
        11.283,
        11.29,
        11.295,
        11.301,
        11.305,
        11.313,
        11.318,
        11.325,
        11.332,
        11.335,
        11.337,
        11.343,
        11.346,
        11.35,
        11.357,
        11.362,
        11.363,
        11.366,
        11.375,
        11.376,
        11.378,
        11.377,
        11.374,
        11.369,
        11.366,
        11.361,
        11.353,
        11.349,
        11.34,
        11.333,
        11.33,
        11.326,
        11.323,
        11.322,
        11.321,
        11.324,
        11.326,
        11.327,
        11.333,
        11.33,
        11.33,
        11.33,
        11.333,
        11.333,
        11.336,
        11.334,
        11.332,
        11.334,
        11.33,
        11.331,
        11.328,
        11.326,
        11.325,
        11.319,
        11.314,
        11.307,
        11.296,
        11.284,
        11.273,
        11.258,
        11.253,
        11.247,
        11.244,
        11.233,
        11.229,
        11.221,
        11.22,
        11.221,
        11.219,
        11.218,
        11.219,
        11.224,
        11.226,
        11.227,
        11.23,
        11.236,
        11.246,
        11.253,
        11.261,
        11.268,
        11.272,
        11.271,
        11.271,
        11.27,
        11.272,
        11.272,
        11.273,
        11.268,
        11.264,
        11.259,
        11.254,
        11.243,
        11.232,
        11.22,
        11.21,
        11.197,
        11.181,
        11.164,
        11.15,
        11.135,
        11.121,
        11.108,
        11.094,
        11.083,
        11.069,
        11.054,
        11.043,
        11.032,
        11.023,
        11.014,
        11.001,
        10.997,
        10.994,
        10.99,
        10.988,
        10.988,
        10.986,
        10.984,
        10.982,
        10.978,
        10.973,
        10.968,
        10.963,
        10.959,
        10.955,
        10.952,
        10.949,
        10.943,
        10.935,
        10.933,
        10.929,
        10.927,
        10.922,
        10.917,
        10.911,
        10.902,
        10.892,
        10.889,
        10.887,
        10.88,
        10.877,
        10.873,
        10.872,
        10.869,
        10.865,
        10.861,
        10.86,
        10.861,
        10.856,
        10.858,
        10.85,
        10.848,
        10.847,
        10.842,
        10.84,
        10.838,
        10.839,
        10.843,
        10.839,
        10.835,
        10.837,
        10.832,
        10.834,
        10.831,
        10.827,
        10.827,
        10.824,
        10.823,
        10.82,
        10.824,
        10.819,
        10.821,
        10.818,
        10.817,
        10.821,
        10.823,
        10.824,
        10.826,
        10.824,
        10.824,
        10.823,
        10.817,
        10.819,
        10.816,
        10.819,
        10.821,
        10.821,
        10.821,
        10.817,
        10.818,
        10.817,
        10.823,
        10.819,
        10.821,
        10.823,
        10.823,
        10.823,
        10.824,
        10.818,
        10.82,
        10.82,
        10.824,
        10.83,
        10.828,
        10.825,
        10.824,
        10.825,
        10.824,
        10.825,
        10.831,
        10.832,
        10.829,
        10.828,
        10.83,
        10.831,
        10.831,
        10.83,
        10.827,
        10.827,
        10.828,
        10.828,
        10.827,
        10.826,
        10.824,
        10.825,
        10.83,
        10.832,
        10.831,
        10.832,
        10.833,
        10.83,
        10.826,
        10.83,
        10.831,
        10.832,
        10.832,
        10.828,
        10.83,
        10.83,
        10.831,
        10.831,
        10.828,
        10.827,
        10.829,
        10.829,
        10.827,
        10.824,
        10.821,
        10.821,
        10.819,
        10.814,
        10.812,
        10.814,
        10.808,
        10.805,
        10.803,
        10.801,
        10.802,
        10.794,
        10.792,
        10.786,
        10.783,
        10.781,
        10.778,
        10.772,
        10.772,
        10.767,
        10.763,
        10.761,
        10.758,
        10.754,
        10.754,
        10.752,
        10.746,
        10.743,
        10.739,
        10.734,
        10.73,
        10.727,
        10.726,
        10.721,
        10.719,
        10.715,
        10.711,
        10.709,
        10.705,
        10.7,
        10.698,
        10.697,
        10.691,
        10.691,
        10.69,
        10.687,
        10.685,
        10.685,
        10.684,
        10.678,
        10.672,
        10.673,
        10.67,
        10.666,
        10.665,
        10.662,
        10.662,
        10.657,
        10.652,
        10.65,
        10.645,
        10.643,
        10.638,
        10.634,
        10.626,
        10.622,
        10.618,
        10.613,
        10.612,
        10.608,
        10.607,
        10.606,
        10.6,
        10.594,
        10.59,
        10.584,
        10.577,
        10.571,
        10.572,
        10.569,
        10.566,
        10.564,
        10.561,
        10.556,
        10.554,
        10.552,
        10.548,
        10.545,
        10.54,
        10.531,
        10.527,
        10.522,
        10.515,
        10.512,
        10.508,
        10.505,
        10.501,
        10.5,
        10.496,
        10.49,
        10.484,
        10.479,
        10.474,
        10.468,
        10.464,
        10.457,
        10.454,
        10.448,
        10.442,
        10.442,
        10.438,
        10.435,
        10.432,
        10.428,
        10.421,
        10.416,
        10.408,
        10.4,
        10.393,
        10.387,
        10.38,
        10.375,
        10.37,
        10.365,
        10.362,
        10.355,
        10.351,
        10.342,
        10.339,
        10.333,
        10.324,
        10.317,
        10.307,
        10.301,
        10.295,
        10.289,
        10.283,
        10.28,
        10.277,
        10.275,
        10.267,
        10.259,
        10.252,
        10.243,
        10.236,
        10.227,
        10.222,
        10.215,
        10.211,
        10.202,
        10.195,
        10.189,
        10.182,
        10.176,
        10.167,
        10.163,
        10.157,
        10.151,
        10.144,
        10.137,
        10.129,
        10.123,
        10.12,
        10.115,
        10.11,
        10.102,
        10.099,
        10.092,
        10.084,
        10.077,
        10.073,
        10.07,
        10.061,
        10.055,
        10.051,
        10.044,
        10.04,
        10.036,
        10.031,
        10.032,
        10.03,
        10.027,
        10.024,
        10.019,
        10.015,
        10.01,
        10.009,
        10.004,
        10.0,
        9.997,
        9.992,
        9.985,
        9.98,
        9.973,
        9.97,
        9.964,
        9.959,
        9.953,
        9.945,
        9.938,
        9.927,
        9.921,
        9.916,
        9.909,
        9.904,
        9.903,
        9.902,
        9.897,
        9.893,
        9.889,
        9.888,
        9.888,
        9.886,
        9.886,
        9.889,
        9.892,
        9.893,
        9.894,
        9.893,
        9.893,
        9.897,
        9.894,
        9.891,
        9.886,
        9.887,
        9.882,
        9.874,
        9.866,
        9.856,
        9.85,
        9.845,
        9.837,
        9.827,
        9.815,
        9.803,
        9.79,
        9.775,
        9.761,
        9.748,
        9.733,
        9.721,
        9.704,
        9.691,
        9.677,
        9.665,
        9.648,
        9.636,
        9.626,
        9.614,
        9.604,
        9.592,
        9.579,
        9.564,
        9.554,
        9.547,
        9.537,
        9.527,
        9.519,
        9.511,
        9.503,
        9.495,
        9.485,
        9.476,
        9.467,
        9.457,
        9.445,
        9.438,
        9.43,
        9.422,
        9.416,
        9.413,
        9.404,
        9.395,
        9.392,
        9.384,
        9.376,
        9.37,
        9.365,
        9.362,
        9.353,
        9.35,
        9.345,
        9.342,
        9.337,
        9.336,
        9.331,
        9.326,
        9.32,
        9.31,
        9.302,
        9.296,
        9.287,
        9.281,
        9.275,
        9.271,
        9.266,
        9.267,
        9.262,
        9.259,
        9.251,
        9.247,
        9.238,
        9.232,
        9.222,
        9.216,
        9.207,
        9.2,
        9.199,
        9.195,
        9.194,
        9.191,
        9.186,
        9.182,
        9.179,
        9.176,
        9.168,
        9.162,
        9.152,
        9.149,
        9.142,
        9.137,
        9.129,
        9.126,
        9.121,
        9.117,
        9.113,
        9.109,
        9.107,
        9.099,
        9.096,
        9.09,
        9.088,
        9.083,
        9.079,
        9.071,
        9.067,
        9.061,
        9.055,
        9.053,
        9.046,
        9.043,
        9.036,
        9.032,
        9.026,
        9.021,
        9.014,
        9.007,
        9.0,
        8.991,
        8.985,
        8.979,
        8.975,
        8.967,
        8.96,
        8.956,
        8.955,
        8.949,
        8.947,
        8.944,
        8.934,
        8.93,
        8.926,
        8.926,
        8.924,
        8.917,
        8.919,
        8.915,
        8.91,
        8.909,
        8.907,
        8.909,
        8.908,
        8.908,
        8.903,
        8.898,
        8.895,
        8.892,
        8.888,
        8.886,
        8.88,
        8.878,
        8.872,
        8.863,
